Polarization of Light 'Brewsters' Data File Wed, Nov 19, 2025 7:41 PM
Sensor Position (Degrees)	Light Intensity (Volts)
180.00000	0.22150
180.00000	0.22021
180.00000	0.21554
180.01667	0.21650
180.01667	0.21892
180.00000	0.21521
180.00000	0.22279
180.00000	0.21795
180.00000	0.21360
180.00000	0.21344
180.00000	0.21618
180.00000	0.22069
180.00000	0.21634
180.00000	0.20845
180.00000	0.21199
180.00000	0.21247
179.98333	0.22101
179.96667	0.21328
179.95000	0.22295
179.93333	0.21618
179.93333	0.21521
179.93333	0.21183
179.91667	0.20603
179.90000	0.20716
179.90000	0.20909
179.90000	0.20329
179.90000	0.20700
179.90000	0.21199
179.88333	0.22246
179.88333	0.19910
179.88333	0.20925
179.90000	0.21344
179.90000	0.22069
179.91667	0.21731
179.93333	0.21151
179.95000	0.21924
179.95000	0.21989
179.95000	0.21296
179.95000	0.21409
179.96667	0.21747
179.96667	0.21972
179.96667	0.21715
179.96667	0.21586
179.96667	0.21892
179.96667	0.21827
179.93333	0.21876
179.86667	0.21763
179.78333	0.21731
179.75000	0.21682
179.71667	0.21586
179.68333	0.21989
179.65000	0.21473
179.61667	0.21376
179.58333	0.21876
179.53333	0.21457
179.45000	0.20474
179.35000	0.20716
179.26667	0.20249
179.15000	0.15866
179.10000	0.13192
179.06667	0.13450
179.05000	0.14819
179.01667	0.15254
178.96667	0.15109
178.81667	0.14255
178.63333	0.11887
178.46667	0.09293
178.36667	0.08568
178.31667	0.12290
178.30000	0.16769
178.28333	0.19701
178.26667	0.19201
178.25000	0.20474
178.23333	0.20377
178.23333	0.21038
178.23333	0.21409
178.23333	0.21344
178.21667	0.21956
178.21667	0.22279
178.20000	0.22069
178.16667	0.21956
178.11667	0.22117
178.05000	0.21570
178.00000	0.21167
177.96667	0.21699
177.93333	0.21022
177.86667	0.20990
177.80000	0.21344
177.75000	0.22246
177.70000	0.22117
177.65000	0.21634
177.60000	0.21215
177.55000	0.21586
177.48333	0.21682
177.43333	0.22117
177.33333	0.21972
177.26667	0.21618
177.20000	0.22311
177.16667	0.22246
177.15000	0.22117
177.13333	0.22246
177.13333	0.22198
177.10000	0.21811
177.03333	0.22343
176.95000	0.21602
176.88333	0.21425
176.81667	0.20974
176.71667	0.20780
176.65000	0.20458
176.60000	0.20587
176.58333	0.21199
176.58333	0.21618
176.56667	0.22246
176.56667	0.22150
176.56667	0.22391
176.56667	0.22714
176.56667	0.22295
176.56667	0.22939
176.53333	0.22424
176.46667	0.21570
176.40000	0.22327
176.31667	0.21634
176.26667	0.20893
176.25000	0.20587
176.23333	0.21006
176.21667	0.21264
176.18333	0.20619
176.05000	0.19572
175.80000	0.16720
175.63333	0.15576
175.58333	0.18476
175.58333	0.22069
175.58333	0.21908
175.58333	0.22778
175.56667	0.22101
175.53333	0.20893
175.43333	0.21102
175.33333	0.21811
175.21667	0.22746
175.10000	0.22697
174.96667	0.23406
174.80000	0.21940
174.70000	0.21296
174.65000	0.21699
174.61667	0.21827
174.56667	0.22407
174.50000	0.23487
174.46667	0.23519
174.41667	0.22504
174.38333	0.23213
174.35000	0.23294
174.31667	0.22971
174.28333	0.22617
174.25000	0.22923
174.23333	0.23390
174.23333	0.23132
174.21667	0.22730
174.21667	0.23277
174.20000	0.23471
174.18333	0.22730
174.16667	0.22617
174.15000	0.23358
174.11667	0.22971
174.11667	0.23084
174.10000	0.23342
174.10000	0.22327
174.08333	0.22730
174.08333	0.22939
174.08333	0.22069
174.06667	0.22665
174.01667	0.21715
173.93333	0.22166
173.85000	0.22021
173.78333	0.21570
173.73333	0.21908
173.65000	0.22907
173.58333	0.23294
173.48333	0.23084
173.38333	0.21682
173.25000	0.21972
173.18333	0.21473
173.18333	0.21199
173.16667	0.21344
173.15000	0.22552
173.15000	0.21666
173.13333	0.21682
173.13333	0.22472
173.13333	0.22826
173.13333	0.22279
173.13333	0.23374
173.13333	0.23358
173.13333	0.22681
173.13333	0.21376
173.13333	0.21409
173.11667	0.20039
173.11667	0.14964
173.11667	0.18525
173.13333	0.20716
173.13333	0.21827
173.13333	0.22488
173.11667	0.20667
173.11667	0.21409
173.13333	0.22182
173.13333	0.22005
173.13333	0.22085
173.13333	0.23181
173.13333	0.23294
173.13333	0.22907
173.13333	0.23390
173.13333	0.23052
173.13333	0.22762
173.13333	0.22375
173.13333	0.22101
173.13333	0.21811
173.13333	0.22053
173.13333	0.22037
173.13333	0.22069
173.13333	0.22585
173.13333	0.23100
173.15000	0.21634
173.15000	0.20925
173.15000	0.21070
173.15000	0.22327
173.15000	0.22246
173.13333	0.22826
173.11667	0.22778
173.06667	0.23149
172.93333	0.23229
172.80000	0.23084
172.65000	0.22826
172.53333	0.20780
172.45000	0.19346
172.38333	0.17784
172.36667	0.18267
172.36667	0.19105
172.35000	0.20281
172.35000	0.21554
172.35000	0.22875
172.35000	0.23600
172.35000	0.22359
172.35000	0.21844
172.35000	0.21328
172.35000	0.21650
172.35000	0.21537
172.35000	0.20168
172.35000	0.20522
172.35000	0.20458
172.35000	0.21264
172.36667	0.23310
172.36667	0.22714
172.36667	0.21102
172.36667	0.21618
172.36667	0.21473
172.35000	0.20667
172.35000	0.20796
172.35000	0.20893
172.35000	0.19346
172.35000	0.19105
172.35000	0.18492
172.35000	0.18202
172.35000	0.18509
172.35000	0.18380
172.35000	0.18541
172.35000	0.20410
172.35000	0.21505
172.35000	0.21715
172.35000	0.21537
172.35000	0.21972
172.35000	0.21860
172.35000	0.22343
172.33333	0.22246
172.33333	0.23342
172.33333	0.23004
172.30000	0.23503
172.26667	0.22730
172.23333	0.23116
172.20000	0.23294
172.18333	0.23712
172.16667	0.23874
172.15000	0.23906
172.13333	0.23648
172.13333	0.23890
172.11667	0.23793
172.10000	0.23616
172.08333	0.23841
172.03333	0.23922
171.95000	0.24260
171.88333	0.23890
171.81667	0.23696
171.75000	0.23761
171.70000	0.23938
171.66667	0.23551
171.66667	0.23809
171.66667	0.24147
171.66667	0.23906
171.66667	0.23712
171.65000	0.23245
171.65000	0.23294
171.65000	0.23487
171.65000	0.23374
171.65000	0.22826
171.63333	0.23616
171.63333	0.22730
171.61667	0.23036
171.61667	0.23310
171.60000	0.23181
171.58333	0.23294
171.56667	0.23326
171.56667	0.23245
171.55000	0.23519
171.55000	0.23036
171.55000	0.22794
171.53333	0.22552
171.51667	0.22810
171.45000	0.22569
171.40000	0.23326
171.35000	0.23052
171.31667	0.23503
171.28333	0.23632
171.23333	0.23294
171.21667	0.23535
171.16667	0.23294
171.10000	0.23390
171.05000	0.23535
171.00000	0.23970
170.93333	0.23584
170.81667	0.23890
170.76667	0.23874
170.71667	0.24115
170.66667	0.23954
170.63333	0.24454
170.58333	0.24147
170.55000	0.24389
170.51667	0.24566
170.50000	0.23922
170.48333	0.24035
170.46667	0.22681
170.43333	0.22794
170.41667	0.21537
170.36667	0.21151
170.33333	0.19862
170.28333	0.19685
170.23333	0.18219
170.20000	0.16962
170.16667	0.16253
170.13333	0.14884
170.11667	0.14481
170.11667	0.15399
170.10000	0.16752
170.10000	0.20522
170.08333	0.21779
170.08333	0.22021
170.06667	0.21763
170.05000	0.21650
170.03333	0.22246
170.03333	0.23004
170.03333	0.22585
170.01667	0.22198
170.01667	0.22214
170.00000	0.22134
170.00000	0.22359
170.00000	0.19749
169.98333	0.14787
169.98333	0.19701
169.98333	0.21376
169.98333	0.22230
169.98333	0.22246
169.98333	0.22714
169.98333	0.22649
169.98333	0.22053
169.98333	0.21779
169.98333	0.22198
169.96667	0.22601
169.96667	0.22391
169.96667	0.22166
169.96667	0.21554
169.95000	0.20474
169.93333	0.21167
169.90000	0.22601
169.86667	0.23068
169.85000	0.23632
169.80000	0.23809
169.75000	0.24599
169.71667	0.24325
169.68333	0.24244
169.66667	0.23906
169.65000	0.24147
169.65000	0.24067
169.65000	0.24260
169.65000	0.24196
169.65000	0.23358
169.65000	0.23632
169.63333	0.23487
169.63333	0.22955
169.61667	0.23197
169.60000	0.23696
169.58333	0.23277
169.56667	0.22665
169.55000	0.22778
169.53333	0.22504
169.51667	0.22794
169.50000	0.23809
169.48333	0.23616
169.45000	0.23406
169.43333	0.23439
169.41667	0.23745
169.41667	0.23310
169.40000	0.24035
169.35000	0.23841
169.26667	0.23406
169.20000	0.24212
169.16667	0.23841
169.15000	0.24502
169.13333	0.23938
169.13333	0.23616
169.11667	0.24486
169.11667	0.24019
169.11667	0.24341
169.10000	0.23503
169.03333	0.22826
168.88333	0.23245
168.73333	0.23100
168.61667	0.23906
168.53333	0.24872
168.50000	0.24953
168.48333	0.24856
168.48333	0.24470
168.46667	0.24164
168.46667	0.24695
168.46667	0.24309
168.46667	0.24357
168.46667	0.24969
168.46667	0.24776
168.46667	0.24889
168.46667	0.24663
168.46667	0.23664
168.46667	0.22971
168.41667	0.22327
168.40000	0.24228
168.40000	0.25275
168.40000	0.24582
168.40000	0.25130
168.40000	0.25275
168.40000	0.22375
168.40000	0.13369
168.40000	0.08826
168.40000	0.15673
168.40000	0.21779
168.40000	0.24840
168.41667	0.25307
168.41667	0.25034
168.41667	0.25372
168.41667	0.25130
168.41667	0.25275
168.41667	0.24292
168.41667	0.24147
168.41667	0.23954
168.41667	0.24969
168.40000	0.24985
168.40000	0.24937
168.40000	0.24518
168.40000	0.24776
168.40000	0.25017
168.40000	0.25146
168.40000	0.25034
168.40000	0.25211
168.40000	0.25388
168.41667	0.25791
168.41667	0.25211
168.41667	0.24582
168.41667	0.24969
168.41667	0.25324
168.41667	0.24872
168.41667	0.25243
168.41667	0.25227
168.41667	0.24937
168.41667	0.23149
168.41667	0.15157
168.41667	0.00947
168.41667	0.00593
168.41667	0.00690
168.41667	0.02204
168.41667	0.04911
168.41667	0.08890
168.40000	0.18702
168.38333	0.21747
168.33333	0.23970
168.26667	0.24180
168.21667	0.25017
168.16667	0.24679
168.11667	0.24454
168.10000	0.24921
168.05000	0.24228
168.00000	0.22585
167.93333	0.20941
167.86667	0.16930
167.73333	0.14674
167.61667	0.19105
167.51667	0.22262
167.43333	0.24099
167.35000	0.24164
167.26667	0.25340
167.21667	0.25179
167.16667	0.22971
167.15000	0.22601
167.11667	0.21441
167.08333	0.20893
167.06667	0.20120
167.05000	0.19169
167.03333	0.19975
167.01667	0.20603
167.00000	0.22488
166.98333	0.22407
166.96667	0.22875
166.96667	0.23729
166.95000	0.23229
166.93333	0.23020
166.90000	0.23036
166.83333	0.21199
166.75000	0.21296
166.68333	0.19395
166.66667	0.20039
166.63333	0.19411
166.63333	0.21344
166.63333	0.22665
166.61667	0.22424
166.61667	0.23793
166.61667	0.24212
166.61667	0.24615
166.61667	0.25082
166.61667	0.24389
166.61667	0.24196
166.61667	0.25549
166.61667	0.25581
166.61667	0.25436
166.61667	0.25179
166.60000	0.24872
166.60000	0.25034
166.60000	0.25179
166.60000	0.25066
166.60000	0.25082
166.60000	0.24599
166.60000	0.25469
166.58333	0.24953
166.58333	0.24969
166.58333	0.24889
166.58333	0.24147
166.58333	0.24518
166.58333	0.25114
166.58333	0.25436
166.58333	0.24969
166.58333	0.24905
166.58333	0.24131
166.58333	0.23890
166.58333	0.24292
166.58333	0.24582
166.58333	0.24437
166.58333	0.25179
166.58333	0.24260
166.58333	0.23664
166.58333	0.16672
166.58333	-0.00261
166.58333	0.90654
166.56667	0.00029
166.56667	0.04460
166.56667	0.06731
166.55000	0.14320
166.55000	-0.00100
166.53333	-0.00052
166.51667	0.17026
166.48333	0.18589
166.41667	0.21409
166.35000	0.24099
166.31667	0.24196
166.28333	0.25001
166.26667	0.24647
166.25000	0.24760
166.25000	0.25001
166.25000	0.24647
166.25000	0.24389
166.23333	0.24099
166.21667	0.23761
166.21667	0.24679
166.20000	0.24341
166.20000	0.24325
166.20000	0.24534
166.18333	0.24244
166.18333	0.25146
166.18333	0.24727
166.16667	0.25179
166.16667	0.25469
166.16667	0.24470
166.16667	0.25146
166.16667	0.25485
166.16667	0.25469
166.15000	0.25211
166.15000	0.24599
166.15000	0.25162
166.15000	0.24921
166.15000	0.25630
166.15000	0.25436
166.15000	0.25597
166.15000	0.24969
166.15000	0.24969
166.13333	0.25485
166.13333	0.25420
166.13333	0.25259
166.11667	0.25275
166.11667	0.25146
166.10000	0.24744
166.08333	0.24744
166.06667	0.25517
166.06667	0.25050
166.05000	0.24421
166.03333	0.24502
166.01667	0.25066
165.96667	0.25146
165.95000	0.24776
165.95000	0.24196
165.93333	0.24905
165.93333	0.24196
165.93333	0.25017
165.91667	0.24405
165.90000	0.24550
165.88333	0.24647
165.86667	0.24389
165.85000	0.24744
165.85000	0.24792
165.81667	0.23986
165.78333	0.24534
165.75000	0.25275
165.73333	0.24969
165.71667	0.25066
165.70000	0.24905
165.70000	0.24921
165.68333	0.25227
165.68333	0.24727
165.66667	0.25179
165.66667	0.24566
165.66667	0.23890
165.65000	0.24276
165.65000	0.24292
165.65000	0.24518
165.63333	0.24373
165.61667	0.24180
165.60000	0.24502
165.56667	0.24599
165.53333	0.24840
165.51667	0.24373
165.50000	0.24615
165.50000	0.25179
165.48333	0.24856
165.48333	0.25372
165.46667	0.24921
165.46667	0.25243
165.45000	0.25098
165.43333	0.24437
165.43333	0.25114
165.41667	0.25388
165.40000	0.25597
165.38333	0.25549
165.38333	0.24889
165.36667	0.25436
165.35000	0.25597
165.35000	0.25066
165.35000	0.25162
165.33333	0.25469
165.30000	0.25597
165.28333	0.25066
165.25000	0.25630
165.23333	0.25517
165.21667	0.25726
165.20000	0.25759
165.20000	0.25195
165.18333	0.25227
165.18333	0.25291
165.18333	0.25275
165.16667	0.25162
165.16667	0.24889
165.16667	0.25001
165.16667	0.24615
165.16667	0.25050
165.16667	0.25114
165.15000	0.24582
165.15000	0.24566
165.15000	0.24534
165.15000	0.24164
165.15000	0.23857
165.15000	0.21924
165.15000	0.22923
165.15000	0.24099
165.15000	0.23471
165.15000	0.23793
165.15000	0.22714
165.15000	0.23326
165.15000	0.23761
165.15000	0.24083
165.15000	0.25436
165.15000	0.22649
165.15000	0.25098
165.15000	0.25404
165.15000	0.23503
165.15000	0.23277
165.15000	0.22746
165.15000	0.19105
165.15000	0.15947
165.15000	0.08777
165.16667	-0.00019
165.16667	0.94569
165.18333	0.00110
165.18333	-0.00084
165.18333	-0.00084
165.18333	0.15689
165.18333	0.24872
165.18333	0.24985
165.18333	0.24228
165.16667	0.25243
165.16667	0.24228
165.16667	0.22826
165.16667	0.24309
165.16667	0.23696
165.16667	0.26000
165.16667	0.26210
165.15000	0.26629
165.15000	0.26081
165.08333	0.25501
165.00000	0.26242
164.96667	0.25275
164.93333	0.25871
164.91667	0.25936
164.88333	0.25952
164.85000	0.26097
164.81667	0.25726
164.78333	0.26226
164.76667	0.25452
164.75000	0.25211
164.75000	0.25726
164.75000	0.26129
164.73333	0.26467
164.71667	0.26065
164.70000	0.25807
164.66667	0.25952
164.61667	0.26741
164.56667	0.26145
164.53333	0.25791
164.51667	0.25678
164.50000	0.25968
164.50000	0.25904
164.50000	0.26016
164.48333	0.26113
164.48333	0.25517
164.48333	0.25420
164.46667	0.24276
164.46667	0.24760
164.45000	0.25291
164.43333	0.25259
164.38333	0.26000
164.31667	0.25710
164.26667	0.25823
164.21667	0.25742
164.18333	0.25646
164.16667	0.25662
164.15000	0.25485
164.15000	0.25436
164.13333	0.24937
164.13333	0.25614
164.11667	0.25742
164.10000	0.25436
164.10000	0.25307
164.08333	0.25501
164.08333	0.25678
164.08333	0.24953
164.08333	0.24921
164.08333	0.25533
164.08333	0.25565
164.06667	0.25759
164.05000	0.25597
164.05000	0.25694
164.03333	0.24744
164.01667	0.24115
164.01667	0.23310
164.01667	0.24357
163.98333	0.25307
163.95000	0.25307
163.90000	0.26113
163.86667	0.26016
163.83333	0.26467
163.80000	0.25742
163.76667	0.26580
163.75000	0.25871
163.73333	0.25855
163.73333	0.26677
163.71667	0.26741
163.71667	0.25968
163.70000	0.25823
163.70000	0.26467
163.68333	0.26274
163.66667	0.25904
163.66667	0.26629
163.65000	0.26451
163.65000	0.26371
163.58333	0.25968
163.53333	0.25904
163.48333	0.25469
163.48333	0.27160
163.48333	0.26854
163.48333	0.26419
163.46667	0.26741
163.45000	0.26403
163.43333	0.26355
163.41667	0.25904
163.40000	0.26322
163.38333	0.26322
163.36667	0.25726
163.33333	0.26709
163.30000	0.26129
163.28333	0.26693
163.26667	0.25936
163.26667	0.26467
163.25000	0.26806
163.21667	0.26677
163.16667	0.26548
163.11667	0.26484
163.10000	0.26677
163.08333	0.26322
163.08333	0.25742
163.06667	0.26564
163.03333	0.26919
163.01667	0.27209
163.00000	0.26902
162.98333	0.26629
162.98333	0.26355
162.96667	0.26870
162.95000	0.26516
162.91667	0.26548
162.88333	0.26838
162.83333	0.26854
162.78333	0.26516
162.76667	0.26902
162.76667	0.26886
162.75000	0.25759
162.73333	0.25759
162.73333	0.25549
162.71667	0.26580
162.71667	0.26580
162.70000	0.27289
162.70000	0.27144
162.68333	0.26806
162.65000	0.26435
162.60000	0.26161
162.56667	0.25839
162.50000	0.24856
162.48333	0.24856
162.48333	0.23906
162.46667	0.24228
162.46667	0.24002
162.46667	0.24454
162.46667	0.24260
162.46667	0.23938
162.46667	0.23712
162.46667	0.23696
162.46667	0.23680
162.46667	0.23664
162.46667	0.24083
162.46667	0.23503
162.46667	0.24067
162.46667	0.24325
162.46667	0.23503
162.46667	0.23181
162.46667	0.22842
162.46667	0.25936
162.46667	0.25501
162.46667	0.26032
162.46667	0.25968
162.46667	0.25646
162.46667	0.26387
162.46667	0.26258
162.46667	0.26983
162.46667	0.26919
162.46667	0.26741
162.46667	0.27289
162.46667	0.26629
162.46667	0.16785
162.46667	0.14255
162.46667	0.15915
162.46667	0.15802
162.46667	0.20522
162.46667	0.22424
162.46667	0.22762
162.46667	0.23793
162.48333	0.25678
162.48333	0.27112
162.48333	0.15657
162.48333	0.24260
162.48333	0.26870
162.48333	0.26645
162.48333	0.26741
162.48333	0.27724
162.46667	0.27531
162.46667	0.27031
162.46667	0.27064
162.46667	0.26032
162.46667	0.26693
162.46667	0.26065
162.46667	0.25936
162.46667	0.26339
162.46667	0.25952
162.46667	0.26387
162.45000	0.26113
162.45000	0.25533
162.45000	0.24985
162.43333	0.21537
162.43333	0.19733
162.43333	0.19362
162.41667	0.13997
162.40000	0.16172
162.36667	0.16881
162.30000	0.20442
162.23333	0.22150
162.18333	0.22617
162.16667	0.23261
162.15000	0.21119
162.13333	0.21666
162.11667	0.19427
162.11667	0.19298
162.10000	0.16479
162.08333	0.13031
162.05000	0.15431
162.00000	0.18525
161.93333	0.21747
161.80000	0.24502
161.61667	0.26226
161.46667	0.27144
161.36667	0.26274
161.31667	0.25887
161.30000	0.26339
161.30000	0.26242
161.30000	0.27482
161.30000	0.26757
161.28333	0.27466
161.28333	0.27128
161.28333	0.27080
161.28333	0.27015
161.28333	0.26516
161.28333	0.27047
161.28333	0.26951
161.28333	0.26532
161.26667	0.26290
161.26667	0.26886
161.26667	0.27096
161.26667	0.27031
161.26667	0.27273
161.25000	0.26693
161.25000	0.27515
161.25000	0.27482
161.25000	0.26870
161.25000	0.27192
161.25000	0.27080
161.25000	0.26629
161.25000	0.26806
161.25000	0.26806
161.25000	0.27563
161.25000	0.27305
161.23333	0.26709
161.18333	0.25871
161.10000	0.25356
161.06667	0.25146
161.03333	0.24357
161.00000	0.24454
160.95000	0.25017
160.90000	0.24711
160.86667	0.25920
160.85000	0.25984
160.83333	0.26580
160.81667	0.25710
160.80000	0.26532
160.78333	0.26081
160.78333	0.26516
160.76667	0.26645
160.73333	0.26516
160.68333	0.27225
160.60000	0.27466
160.56667	0.27144
160.56667	0.27176
160.55000	0.27579
160.53333	0.27064
160.50000	0.27064
160.43333	0.26339
160.38333	0.27080
160.33333	0.26339
160.30000	0.26709
160.26667	0.26629
160.21667	0.25759
160.18333	0.25307
160.16667	0.25565
160.15000	0.25452
160.15000	0.26419
160.13333	0.27515
160.11667	0.27434
160.10000	0.27499
160.08333	0.27692
160.05000	0.27144
160.00000	0.26935
159.93333	0.25791
159.83333	0.24905
159.75000	0.23954
159.68333	0.22617
159.63333	0.21795
159.60000	0.21360
159.56667	0.22520
159.56667	0.23874
159.55000	0.26564
159.53333	0.27015
159.51667	0.27047
159.50000	0.26564
159.48333	0.25839
159.46667	0.25340
159.46667	0.25114
159.45000	0.24921
159.43333	0.25162
159.41667	0.24679
159.40000	0.24937
159.36667	0.24341
159.33333	0.23229
159.31667	0.23503
159.31667	0.24083
159.30000	0.23906
159.30000	0.24824
159.30000	0.25372
159.30000	0.27080
159.30000	0.27160
159.30000	0.26967
159.30000	0.22375
159.30000	0.05684
159.28333	0.12112
159.26667	0.13208
159.26667	0.14078
159.26667	0.00690
159.28333	0.04492
159.28333	0.26854
159.28333	0.27853
159.28333	0.28385
159.28333	0.27966
159.28333	0.27837
159.28333	0.28465
159.28333	0.28256
159.28333	0.27337
159.28333	0.26403
159.28333	0.26145
159.28333	0.26145
159.28333	0.26725
159.28333	0.27080
159.25000	0.27321
159.20000	0.26467
159.08333	0.27644
159.01667	0.27805
158.96667	0.27241
158.93333	0.27579
158.91667	0.27482
158.90000	0.27273
158.90000	0.27047
158.88333	0.27515
158.88333	0.27015
158.86667	0.27289
158.85000	0.27273
158.85000	0.27450
158.83333	0.27869
158.83333	0.27692
158.81667	0.28046
158.81667	0.27482
158.81667	0.27772
158.81667	0.27853
158.81667	0.28111
158.81667	0.28030
158.81667	0.27821
158.81667	0.27950
158.81667	0.27337
158.81667	0.27321
158.81667	0.26500
158.81667	0.25275
158.81667	0.25098
158.81667	0.24856
158.81667	0.24824
158.81667	0.26258
158.81667	0.25597
158.80000	0.27482
158.76667	0.27708
158.66667	0.27547
158.60000	0.27080
158.58333	0.27531
158.56667	0.27289
158.55000	0.27692
158.50000	0.27354
158.45000	0.27853
158.40000	0.27950
158.36667	0.27563
158.35000	0.27966
158.33333	0.27450
158.33333	0.28207
158.31667	0.27756
158.28333	0.26806
158.25000	0.27917
158.23333	0.27144
158.20000	0.27144
